Data from azuriteWhite_Reflection__2__07.txt Node

Date: Thu Sep 11 15:27:26 CEST 2025
User: sycur
Spectrometer: SR400348
Trigger mode: 0
Integration Time (sec): 2,000000E-2
Scans to average: 20
Electric dark correction enabled: true
Nonlinearity correction enabled: false
Boxcar width: 10
XAxis mode: Wavelengths
Number of Pixels in Spectrum: 3648
>>>>>Begin Spectral Data<<<<<
186,01	-1606,62
186,281	1425,28
186,552	253,9
186,822	197,9
187,093	0
187,364	-32,68
187,635	41,45
187,905	24,25
188,176	10,55
188,447	10,42
188,717	8,78
188,988	7,43
189,258	10,11
189,529	9,18
189,8	9,89
190,07	10,01
190,341	10,56
190,611	8,09
190,882	10,16
191,152	9,53
191,423	8,48
191,693	8,56
191,964	8,62
192,234	7,92
192,505	6,92
192,775	7,26
193,045	6,69
193,316	7,25
193,586	6,57
193,856	6,21
194,127	6,61
194,397	6,83
194,667	7,96
194,938	7,43
195,208	8
195,478	7,34
195,748	7,52
196,019	7,31
196,289	7,87
196,559	7,69
196,829	7,76
197,099	8,38
197,37	8,2
197,64	7,37
197,91	7,6
198,18	7,96
198,45	7,95
198,72	8,6
198,99	8,31
199,26	8,38
199,53	8,65
199,8	8,17
200,07	8,02
200,34	7,41
200,61	7,42
200,88	7,25
201,15	7,23
201,42	6,86
201,69	6,57
201,96	6,45
202,23	6,32
202,499	5,96
202,769	6,14
203,039	6,25
203,309	6,61
203,579	6,64
203,849	6,57
204,118	6,3
204,388	6,17
204,658	6,33
204,927	6,19
205,197	6,04
205,467	6,04
205,736	5,82
206,006	5,84
206,276	5,69
206,545	5,61
206,815	5,59
207,085	5,55
207,354	5,62
207,624	5,46
207,893	5,34
208,163	5,53
208,432	5,27
208,702	5,07
208,971	5
209,241	4,85
209,51	4,7
209,78	4,63
210,049	4,42
210,318	4,29
210,588	4,31
210,857	4,39
211,127	4,36
211,396	4,41
211,665	4,38
211,935	4,4
212,204	4,39
212,473	4,26
212,742	4,42
213,012	4,23
213,281	4,23
213,55	4,27
213,819	4,12
214,088	4,05
214,358	4,06
214,627	3,94
214,896	3,81
215,165	3,81
215,434	3,78
215,703	3,84
215,972	3,69
216,241	3,63
216,51	3,54
216,779	3,53
217,048	3,51
217,317	3,39
217,586	3,28
217,855	3,23
218,124	3,29
218,393	3,2
218,662	3,23
218,931	3,14
219,2	3,1
219,469	3,07
219,738	3,04
220,006	3
220,275	2,98
220,544	3,02
220,813	2,95
221,082	2,93
221,35	2,88
221,619	2,88
221,888	2,86
222,157	2,88
222,425	2,83
222,694	2,75
222,963	2,75
223,231	2,77
223,5	2,75
223,769	2,71
224,037	2,67
224,306	2,67
224,574	2,69
224,843	2,68
225,111	2,66
225,38	2,67
225,648	2,65
225,917	2,64
226,185	2,65
226,454	2,6
226,722	2,58
226,991	2,54
227,259	2,52
227,528	2,53
227,796	2,48
228,064	2,47
228,333	2,49
228,601	2,51
228,869	2,49
229,138	2,47
229,406	2,45
229,674	2,44
229,942	2,42
230,211	2,41
230,479	2,41
230,747	2,4
231,015	2,37
231,283	2,37
231,552	2,39
231,82	2,36
232,088	2,37
232,356	2,37
232,624	2,38
232,892	2,39
233,16	2,35
233,428	2,34
233,696	2,34
233,964	2,32
234,232	2,29
234,5	2,26
234,768	2,26
235,036	2,28
235,304	2,27
235,572	2,26
235,84	2,26
236,108	2,25
236,376	2,26
236,644	2,26
236,912	2,25
237,179	2,21
237,447	2,21
237,715	2,21
237,983	2,19
238,251	2,2
238,518	2,18
238,786	2,19
239,054	2,19
239,322	2,18
239,589	2,17
239,857	2,19
240,125	2,19
240,392	2,2
240,66	2,18
240,927	2,17
241,195	2,18
241,463	2,17
241,73	2,16
241,998	2,13
242,265	2,13
242,533	2,14
242,8	2,14
243,068	2,15
243,335	2,14
243,603	2,14
243,87	2,12
244,138	2,11
244,405	2,11
244,672	2,12
244,94	2,12
245,207	2,12
245,474	2,12
245,742	2,12
246,009	2,12
246,276	2,13
246,544	2,13
246,811	2,12
247,078	2,13
247,345	2,13
247,613	2,13
247,88	2,13
248,147	2,13
248,414	2,12
248,681	2,11
248,948	2,12
249,215	2,13
249,483	2,15
249,75	2,16
250,017	2,16
250,284	2,15
250,551	2,15
250,818	2,16
251,085	2,15
251,352	2,15
251,619	2,15
251,886	2,15
252,153	2,15
252,42	2,16
252,687	2,16
252,953	2,17
253,22	2,17
253,487	2,19
253,754	2,19
254,021	2,19
254,288	2,2
254,555	2,21
254,821	2,22
255,088	2,21
255,355	2,21
255,622	2,21
255,888	2,21
256,155	2,21
256,422	2,21
256,688	2,22
256,955	2,22
257,222	2,22
257,488	2,21
257,755	2,22
258,022	2,22
258,288	2,22
258,555	2,22
258,821	2,23
259,088	2,22
259,354	2,23
259,621	2,24
259,887	2,24
260,154	2,24
260,42	2,23
260,687	2,22
260,953	2,23
261,219	2,23
261,486	2,23
261,752	2,23
262,019	2,24
262,285	2,24
262,551	2,23
262,818	2,24
263,084	2,25
263,35	2,26
263,616	2,26
263,883	2,26
264,149	2,27
264,415	2,26
264,681	2,27
264,947	2,27
265,214	2,26
265,48	2,27
265,746	2,27
266,012	2,28
266,278	2,29
266,544	2,3
266,81	2,31
267,076	2,32
267,342	2,32
267,608	2,33
267,874	2,33
268,14	2,34
268,406	2,34
268,672	2,34
268,938	2,34
269,204	2,34
269,47	2,34
269,736	2,34
270,002	2,35
270,268	2,35
270,533	2,36
270,799	2,36
271,065	2,37
271,331	2,36
271,597	2,35
271,862	2,34
272,128	2,34
272,394	2,35
272,66	2,35
272,925	2,35
273,191	2,34
273,457	2,34
273,722	2,34
273,988	2,34
274,254	2,35
274,519	2,36
274,785	2,36
275,05	2,37
275,316	2,38
275,582	2,37
275,847	2,36
276,113	2,37
276,378	2,37
276,644	2,37
276,909	2,36
277,174	2,36
277,44	2,38
277,705	2,38
277,971	2,38
278,236	2,38
278,501	2,39
278,767	2,4
279,032	2,4
279,297	2,41
279,563	2,41
279,828	2,42
280,093	2,4
280,358	2,4
280,624	2,41
280,889	2,41
281,154	2,42
281,419	2,43
281,684	2,41
281,95	2,42
282,215	2,43
282,48	2,44
282,745	2,43
283,01	2,42
283,275	2,42
283,54	2,43
283,805	2,43
284,07	2,43
284,335	2,44
284,6	2,43
284,865	2,44
285,13	2,43
285,395	2,43
285,66	2,44
285,925	2,43
286,19	2,43
286,455	2,42
286,72	2,41
286,985	2,42
287,249	2,42
287,514	2,42
287,779	2,43
288,044	2,43
288,309	2,44
288,573	2,44
288,838	2,45
289,103	2,44
289,367	2,44
289,632	2,43
289,897	2,43
290,161	2,44
290,426	2,44
290,691	2,44
290,955	2,44
291,22	2,44
291,484	2,45
291,749	2,44
292,014	2,45
292,278	2,46
292,543	2,46
292,807	2,47
293,072	2,46
293,336	2,46
293,6	2,46
293,865	2,46
294,129	2,46
294,394	2,47
294,658	2,48
294,922	2,48
295,187	2,49
295,451	2,49
295,715	2,49
295,98	2,49
296,244	2,49
296,508	2,49
296,773	2,49
297,037	2,49
297,301	2,5
297,565	2,49
297,829	2,49
298,094	2,5
298,358	2,49
298,622	2,49
298,886	2,49
299,15	2,5
299,414	2,5
299,678	2,5
299,942	2,49
300,206	2,49
300,47	2,49
300,734	2,49
300,998	2,5
301,262	2,5
301,526	2,49
301,79	2,48
302,054	2,49
302,318	2,48
302,582	2,48
302,846	2,49
303,11	2,48
303,374	2,49
303,637	2,48
303,901	2,47
304,165	2,48
304,429	2,49
304,693	2,48
304,956	2,48
305,22	2,48
305,484	2,48
305,747	2,48
306,011	2,47
306,275	2,47
306,538	2,47
306,802	2,47
307,066	2,47
307,329	2,47
307,593	2,47
307,856	2,47
308,12	2,47
308,384	2,45
308,647	2,46
308,911	2,46
309,174	2,46
309,438	2,47
309,701	2,47
309,964	2,47
310,228	2,46
310,491	2,47
310,755	2,47
311,018	2,46
311,281	2,45
311,545	2,46
311,808	2,46
312,071	2,45
312,335	2,46
312,598	2,46
312,861	2,46
313,124	2,46
313,388	2,47
313,651	2,47
313,914	2,47
314,177	2,47
314,44	2,47
314,704	2,47
314,967	2,47
315,23	2,46
315,493	2,46
315,756	2,45
316,019	2,45
316,282	2,46
316,545	2,47
316,808	2,47
317,071	2,47
317,334	2,48
317,597	2,48
317,86	2,47
318,123	2,48
318,386	2,48
318,649	2,47
318,912	2,46
319,175	2,46
319,437	2,47
319,7	2,48
319,963	2,47
320,226	2,46
320,489	2,46
320,751	2,46
321,014	2,46
321,277	2,47
321,54	2,47
321,802	2,46
322,065	2,45
322,328	2,46
322,59	2,46
322,853	2,45
323,116	2,44
323,378	2,45
323,641	2,44
323,903	2,45
324,166	2,46
324,428	2,45
324,691	2,45
324,953	2,45
325,216	2,44
325,478	2,44
325,741	2,43
326,003	2,44
326,266	2,43
326,528	2,43
326,791	2,43
327,053	2,42
327,315	2,42
327,578	2,43
327,84	2,41
328,102	2,4
328,365	2,4
328,627	2,4
328,889	2,4
329,151	2,4
329,414	2,4
329,676	2,39
329,938	2,4
330,2	2,4
330,462	2,4
330,725	2,4
330,987	2,4
331,249	2,41
331,511	2,41
331,773	2,4
332,035	2,41
332,297	2,4
332,559	2,42
332,821	2,43
333,083	2,43
333,345	2,44
333,607	2,45
333,869	2,45
334,131	2,45
334,393	2,45
334,655	2,46
334,917	2,45
335,179	2,45
335,44	2,45
335,702	2,45
335,964	2,46
336,226	2,46
336,488	2,45
336,749	2,45
337,011	2,46
337,273	2,48
337,535	2,48
337,796	2,49
338,058	2,49
338,32	2,49
338,581	2,49
338,843	2,49
339,105	2,49
339,366	2,5
339,628	2,52
339,889	2,52
340,151	2,52
340,412	2,53
340,674	2,54
340,935	2,54
341,197	2,54
341,458	2,55
341,72	2,56
341,981	2,58
342,243	2,58
342,504	2,58
342,766	2,58
343,027	2,59
343,288	2,6
343,55	2,6
343,811	2,59
344,072	2,6
344,334	2,61
344,595	2,61
344,856	2,62
345,117	2,61
345,379	2,62
345,64	2,63
345,901	2,63
346,162	2,62
346,423	2,62
346,684	2,62
346,946	2,63
347,207	2,63
347,468	2,62
347,729	2,62
347,99	2,63
348,251	2,64
348,512	2,66
348,773	2,65
349,034	2,65
349,295	2,68
349,556	2,67
349,817	2,66
350,078	2,66
350,339	2,66
350,6	2,68
350,86	2,66
351,121	2,68
351,382	2,68
351,643	2,69
351,904	2,7
352,165	2,72
352,425	2,72
352,686	2,73
352,947	2,73
353,208	2,74
353,468	2,74
353,729	2,73
353,99	2,74
354,25	2,73
354,511	2,75
354,772	2,75
355,032	2,77
355,293	2,79
355,553	2,79
355,814	2,79
356,074	2,81
356,335	2,82
356,596	2,82
356,856	2,84
357,116	2,86
357,377	2,86
357,637	2,87
357,898	2,88
358,158	2,89
358,419	2,9
358,679	2,93
358,939	2,94
359,2	2,96
359,46	2,97
359,72	2,99
359,981	2,99
360,241	3,01
360,501	3,03
360,761	3,03
361,022	3,05
361,282	3,08
361,542	3,1
361,802	3,11
362,062	3,12
362,323	3,14
362,583	3,16
362,843	3,17
363,103	3,19
363,363	3,2
363,623	3,22
363,883	3,24
364,143	3,25
364,403	3,28
364,663	3,3
364,923	3,31
365,183	3,33
365,443	3,37
365,703	3,4
365,963	3,42
366,223	3,44
366,483	3,46
366,743	3,47
367,002	3,49
367,262	3,53
367,522	3,56
367,782	3,58
368,042	3,61
368,301	3,63
368,561	3,66
368,821	3,69
369,081	3,69
369,34	3,72
369,6	3,74
369,86	3,76
370,119	3,78
370,379	3,81
370,638	3,83
370,898	3,85
371,158	3,87
371,417	3,89
371,677	3,93
371,936	3,97
372,196	4,01
372,455	4,02
372,715	4,05
372,974	4,07
373,234	4,1
373,493	4,13
373,753	4,18
374,012	4,22
374,271	4,26
374,531	4,3
374,79	4,35
375,049	4,4
375,309	4,45
375,568	4,48
375,827	4,53
376,086	4,57
376,346	4,61
376,605	4,65
376,864	4,68
377,123	4,74
377,383	4,76
377,642	4,8
377,901	4,85
378,16	4,88
378,419	4,92
378,678	4,96
378,937	5
379,196	5,04
379,455	5,08
379,714	5,12
379,973	5,17
380,232	5,22
380,491	5,25
380,75	5,28
381,009	5,34
381,268	5,39
381,527	5,45
381,786	5,51
382,045	5,56
382,304	5,61
382,563	5,63
382,821	5,71
383,08	5,76
383,339	5,81
383,598	5,86
383,857	5,93
384,115	5,99
384,374	6,05
384,633	6,1
384,891	6,16
385,15	6,23
385,409	6,3
385,667	6,36
385,926	6,42
386,185	6,49
386,443	6,54
386,702	6,6
386,96	6,64
387,219	6,68
387,477	6,73
387,736	6,81
387,994	6,88
388,253	6,92
388,511	7
388,77	7,07
389,028	7,13
389,287	7,2
389,545	7,27
389,803	7,33
390,062	7,4
390,32	7,48
390,578	7,54
390,837	7,61
391,095	7,67
391,353	7,75
391,612	7,82
391,87	7,9
392,128	7,95
392,386	8,03
392,644	8,11
392,903	8,2
393,161	8,25
393,419	8,32
393,677	8,41
393,935	8,48
394,193	8,56
394,451	8,64
394,709	8,7
394,967	8,77
395,225	8,87
395,483	8,95
395,741	9,03
395,999	9,12
396,257	9,18
396,515	9,25
396,773	9,34
397,031	9,4
397,289	9,49
397,547	9,58
397,805	9,67
398,062	9,74
398,32	9,82
398,578	9,91
398,836	9,99
399,094	10,06
399,351	10,11
399,609	10,19
399,867	10,27
400,124	10,36
400,382	10,45
400,64	10,52
400,897	10,6
401,155	10,67
401,413	10,75
401,67	10,83
401,928	10,91
402,185	10,99
402,443	11,08
402,701	11,15
402,958	11,23
403,216	11,3
403,473	11,39
403,73	11,47
403,988	11,54
404,245	11,59
404,503	11,69
404,76	11,77
405,018	11,84
405,275	11,91
405,532	11,97
405,79	12,04
406,047	12,12
406,304	12,19
406,561	12,26
406,819	12,31
407,076	12,4
407,333	12,45
407,59	12,53
407,848	12,59
408,105	12,68
408,362	12,76
408,619	12,81
408,876	12,88
409,133	12,94
409,39	13,02
409,647	13,13
409,904	13,19
410,161	13,28
410,418	13,38
410,675	13,46
410,932	13,54
411,189	13,61
411,446	13,67
411,703	13,75
411,96	13,83
412,217	13,91
412,474	13,98
412,731	14,08
412,988	14,16
413,245	14,23
413,501	14,31
413,758	14,39
414,015	14,48
414,272	14,56
414,529	14,63
414,785	14,7
415,042	14,74
415,299	14,81
415,555	14,86
415,812	14,91
416,069	14,97
416,325	15,05
416,582	15,09
416,838	15,18
417,095	15,24
417,352	15,31
417,608	15,4
417,865	15,45
418,121	15,53
418,378	15,59
418,634	15,7
418,891	15,78
419,147	15,85
419,403	15,94
419,66	16,02
419,916	16,13
420,173	16,21
420,429	16,32
420,685	16,4
420,942	16,5
421,198	16,58
421,454	16,66
421,711	16,74
421,967	16,83
422,223	16,91
422,479	16,99
422,735	17,06
422,992	17,14
423,248	17,21
423,504	17,29
423,76	17,36
424,016	17,39
424,272	17,44
424,528	17,49
424,784	17,53
425,041	17,6
425,297	17,66
425,553	17,73
425,809	17,79
426,065	17,85
426,32	17,92
426,576	18,01
426,832	18,07
427,088	18,15
427,344	18,23
427,6	18,3
427,856	18,38
428,112	18,46
428,368	18,52
428,623	18,6
428,879	18,66
429,135	18,72
429,391	18,78
429,646	18,85
429,902	18,93
430,158	18,99
430,414	19,04
430,669	19,08
430,925	19,16
431,181	19,21
431,436	19,29
431,692	19,34
431,947	19,39
432,203	19,45
432,458	19,49
432,714	19,55
432,97	19,61
433,225	19,67
433,481	19,7
433,736	19,78
433,991	19,83
434,247	19,88
434,502	19,95
434,758	20,03
435,013	20,11
435,268	20,19
435,524	20,24
435,779	20,31
436,034	20,37
436,29	20,43
436,545	20,5
436,8	20,53
437,056	20,58
437,311	20,63
437,566	20,7
437,821	20,75
438,076	20,77
438,331	20,84
438,587	20,89
438,842	20,97
439,097	21,02
439,352	21,11
439,607	21,18
439,862	21,25
440,117	21,32
440,372	21,38
440,627	21,41
440,882	21,48
441,137	21,55
441,392	21,62
441,647	21,64
441,902	21,71
442,157	21,78
442,412	21,85
442,667	21,9
442,921	21,95
443,176	22,02
443,431	22,08
443,686	22,13
443,941	22,17
444,195	22,22
444,45	22,29
444,705	22,29
444,96	22,35
445,214	22,38
445,469	22,42
445,724	22,45
445,978	22,5
446,233	22,5
446,487	22,52
446,742	22,54
446,997	22,61
447,251	22,62
447,506	22,65
447,76	22,66
448,015	22,7
448,269	22,7
448,524	22,73
448,778	22,77
449,033	22,8
449,287	22,82
449,541	22,81
449,796	22,82
450,05	22,85
450,305	22,87
450,559	22,88
450,813	22,88
451,067	22,9
451,322	22,93
451,576	22,96
451,83	22,97
452,084	22,99
452,339	22,99
452,593	23,02
452,847	23,01
453,101	23,02
453,355	23,02
453,609	23,04
453,864	23,05
454,118	23,03
454,372	23,03
454,626	23,05
454,88	23,08
455,134	23,1
455,388	23,09
455,642	23,1
455,896	23,13
456,15	23,15
456,404	23,16
456,658	23,16
456,912	23,18
457,165	23,23
457,419	23,24
457,673	23,25
457,927	23,24
458,181	23,29
458,435	23,3
458,688	23,35
458,942	23,36
459,196	23,36
459,45	23,38
459,703	23,4
459,957	23,4
460,211	23,4
460,464	23,39
460,718	23,41
460,972	23,42
461,225	23,42
461,479	23,42
461,732	23,44
461,986	23,46
462,239	23,48
462,493	23,49
462,746	23,52
463	23,55
463,253	23,59
463,507	23,58
463,76	23,6
464,014	23,6
464,267	23,64
464,52	23,67
464,774	23,7
465,027	23,71
465,28	23,75
465,534	23,76
465,787	23,77
466,04	23,77
466,294	23,78
466,547	23,77
466,8	23,78
467,053	23,75
467,306	23,78
467,56	23,76
467,813	23,76
468,066	23,74
468,319	23,7
468,572	23,68
468,825	23,68
469,078	23,67
469,331	23,68
469,584	23,66
469,837	23,67
470,09	23,65
470,343	23,65
470,596	23,66
470,849	23,66
471,102	23,67
471,355	23,69
471,608	23,69
471,861	23,72
472,114	23,72
472,367	23,76
472,619	23,75
472,872	23,77
473,125	23,77
473,378	23,78
473,631	23,8
473,883	23,81
474,136	23,81
474,389	23,82
474,641	23,82
474,894	23,83
475,147	23,81
475,399	23,83
475,652	23,83
475,905	23,83
476,157	23,84
476,41	23,84
476,662	23,84
476,915	23,84
477,167	23,81
477,42	23,81
477,672	23,8
477,925	23,8
478,177	23,77
478,43	23,77
478,682	23,75
478,934	23,75
479,187	23,75
479,439	23,74
479,691	23,72
479,944	23,71
480,196	23,69
480,448	23,69
480,701	23,65
480,953	23,62
481,205	23,6
481,457	23,58
481,709	23,57
481,962	23,56
482,214	23,54
482,466	23,56
482,718	23,57
482,97	23,6
483,222	23,64
483,474	23,69
483,726	23,75
483,978	23,79
484,23	23,8
484,482	23,8
484,734	23,8
484,986	23,8
485,238	23,79
485,49	23,77
485,742	23,75
485,994	23,74
486,246	23,71
486,498	23,68
486,75	23,66
487,001	23,62
487,253	23,58
487,505	23,54
487,757	23,49
488,009	23,41
488,26	23,33
488,512	23,22
488,764	23,1
489,015	22,96
489,267	22,83
489,519	22,7
489,77	22,62
490,022	22,54
490,274	22,45
490,525	22,38
490,777	22,3
491,028	22,25
491,28	22,18
491,531	22,14
491,783	22,08
492,034	22,02
492,286	21,95
492,537	21,89
492,789	21,83
493,04	21,76
493,291	21,71
493,543	21,66
493,794	21,61
494,045	21,56
494,297	21,51
494,548	21,46
494,799	21,41
495,051	21,35
495,302	21,27
495,553	21,21
495,804	21,16
496,056	21,1
496,307	21,03
496,558	20,98
496,809	20,92
497,06	20,87
497,311	20,81
497,562	20,74
497,813	20,69
498,064	20,65
498,316	20,59
498,567	20,53
498,818	20,46
499,069	20,41
499,319	20,35
499,57	20,28
499,821	20,21
500,072	20,16
500,323	20,1
500,574	20,05
500,825	20
501,076	19,94
501,327	19,88
501,577	19,82
501,828	19,74
502,079	19,68
502,33	19,61
502,58	19,56
502,831	19,5
503,082	19,45
503,333	19,39
503,583	19,33
503,834	19,27
504,084	19,21
504,335	19,13
504,586	19,06
504,836	19
505,087	18,95
505,337	18,88
505,588	18,81
505,838	18,74
506,089	18,68
506,339	18,6
506,59	18,55
506,84	18,48
507,091	18,43
507,341	18,36
507,591	18,29
507,842	18,21
508,092	18,15
508,343	18,07
508,593	17,99
508,843	17,91
509,093	17,84
509,344	17,78
509,594	17,72
509,844	17,65
510,094	17,59
510,345	17,51
510,595	17,45
510,845	17,39
511,095	17,33
511,345	17,26
511,595	17,21
511,845	17,12
512,095	17,05
512,345	16,98
512,595	16,92
512,845	16,86
513,095	16,79
513,345	16,74
513,595	16,68
513,845	16,6
514,095	16,55
514,345	16,48
514,595	16,42
514,845	16,36
515,095	16,3
515,345	16,23
515,594	16,18
515,844	16,11
516,094	16,05
516,344	15,98
516,593	15,91
516,843	15,85
517,093	15,8
517,343	15,75
517,592	15,71
517,842	15,64
518,092	15,58
518,341	15,53
518,591	15,45
518,84	15,4
519,09	15,36
519,34	15,29
519,589	15,24
519,839	15,18
520,088	15,12
520,338	15,06
520,587	15
520,836	14,93
521,086	14,87
521,335	14,82
521,585	14,77
521,834	14,71
522,083	14,65
522,333	14,59
522,582	14,53
522,831	14,47
523,081	14,43
523,33	14,37
523,579	14,32
523,828	14,28
524,078	14,22
524,327	14,15
524,576	14,11
524,825	14,06
525,074	14,01
525,323	13,94
525,573	13,89
525,822	13,84
526,071	13,8
526,32	13,77
526,569	13,72
526,818	13,67
527,067	13,63
527,316	13,56
527,565	13,52
527,814	13,47
528,063	13,43
528,312	13,37
528,56	13,32
528,809	13,27
529,058	13,22
529,307	13,17
529,556	13,13
529,805	13,07
530,053	13,04
530,302	12,98
530,551	12,95
530,8	12,91
531,048	12,86
531,297	12,81
531,546	12,76
531,794	12,7
532,043	12,66
532,292	12,62
532,54	12,59
532,789	12,55
533,037	12,51
533,286	12,47
533,535	12,43
533,783	12,39
534,032	12,35
534,28	12,31
534,528	12,28
534,777	12,23
535,025	12,2
535,274	12,16
535,522	12,11
535,771	12,07
536,019	12,04
536,267	11,99
536,516	11,96
536,764	11,92
537,012	11,88
537,26	11,84
537,509	11,81
537,757	11,76
538,005	11,73
538,253	11,68
538,501	11,66
538,75	11,61
538,998	11,58
539,246	11,54
539,494	11,5
539,742	11,46
539,99	11,43
540,238	11,39
540,486	11,36
540,734	11,32
540,982	11,29
541,23	11,25
541,478	11,22
541,726	11,19
541,974	11,16
542,222	11,13
542,47	11,09
542,718	11,06
542,966	11,03
543,213	10,99
543,461	10,96
543,709	10,91
543,957	10,87
544,205	10,83
544,452	10,8
544,7	10,77
544,948	10,74
545,196	10,71
545,443	10,67
545,691	10,64
545,939	10,62
546,186	10,58
546,434	10,55
546,681	10,51
546,929	10,47
547,176	10,45
547,424	10,41
547,671	10,37
547,919	10,34
548,166	10,3
548,414	10,27
548,661	10,25
548,909	10,22
549,156	10,2
549,404	10,18
549,651	10,15
549,898	10,14
550,146	10,1
550,393	10,07
550,64	10,04
550,888	10,02
551,135	9,99
551,382	9,97
551,629	9,94
551,876	9,91
552,124	9,88
552,371	9,86
552,618	9,82
552,865	9,82
553,112	9,8
553,359	9,78
553,606	9,75
553,854	9,71
554,101	9,69
554,348	9,66
554,595	9,63
554,842	9,6
555,089	9,57
555,336	9,55
555,582	9,53
555,829	9,49
556,076	9,45
556,323	9,42
556,57	9,4
556,817	9,38
557,064	9,34
557,311	9,31
557,557	9,28
557,804	9,26
558,051	9,22
558,298	9,19
558,544	9,16
558,791	9,14
559,038	9,12
559,284	9,09
559,531	9,06
559,778	9,04
560,024	9,01
560,271	8,98
560,517	8,95
560,764	8,93
561,011	8,91
561,257	8,89
561,504	8,87
561,75	8,84
561,997	8,81
562,243	8,81
562,489	8,78
562,736	8,76
562,982	8,73
563,229	8,71
563,475	8,69
563,721	8,67
563,968	8,65
564,214	8,63
564,46	8,61
564,707	8,59
564,953	8,56
565,199	8,55
565,445	8,53
565,691	8,52
565,938	8,5
566,184	8,49
566,43	8,48
566,676	8,48
566,922	8,47
567,168	8,47
567,414	8,45
567,66	8,46
567,906	8,46
568,152	8,46
568,398	8,46
568,644	8,47
568,89	8,47
569,136	8,48
569,382	8,48
569,628	8,48
569,874	8,48
570,12	8,48
570,366	8,48
570,612	8,48
570,857	8,47
571,103	8,46
571,349	8,46
571,595	8,46
571,84	8,46
572,086	8,46
572,332	8,46
572,578	8,46
572,823	8,46
573,069	8,45
573,315	8,44
573,56	8,43
573,806	8,4
574,051	8,4
574,297	8,38
574,542	8,38
574,788	8,37
575,034	8,37
575,279	8,36
575,524	8,36
575,77	8,35
576,015	8,35
576,261	8,35
576,506	8,35
576,752	8,33
576,997	8,32
577,242	8,29
577,488	8,28
577,733	8,25
577,978	8,24
578,223	8,22
578,469	8,22
578,714	8,22
578,959	8,22
579,204	8,21
579,45	8,21
579,695	8,2
579,94	8,19
580,185	8,18
580,43	8,16
580,675	8,14
580,92	8,13
581,165	8,1
581,41	8,08
581,655	8,05
581,9	8,04
582,145	8,01
582,39	8
582,635	7,98
582,88	7,98
583,125	7,95
583,37	7,93
583,615	7,91
583,86	7,88
584,105	7,85
584,349	7,82
584,594	7,78
584,839	7,76
585,084	7,72
585,328	7,7
585,573	7,67
585,818	7,65
586,063	7,62
586,307	7,61
586,552	7,58
586,797	7,57
587,041	7,54
587,286	7,52
587,53	7,49
587,775	7,46
588,019	7,43
588,264	7,41
588,508	7,38
588,753	7,35
588,997	7,32
589,242	7,3
589,486	7,26
589,731	7,25
589,975	7,22
590,22	7,19
590,464	7,17
590,708	7,16
590,953	7,13
591,197	7,12
591,441	7,1
591,685	7,09
591,93	7,08
592,174	7,07
592,418	7,05
592,662	7,05
592,907	7,03
593,151	7,03
593,395	7,02
593,639	7,01
593,883	7
594,127	6,98
594,371	6,97
594,615	6,96
594,859	6,93
595,103	6,92
595,347	6,91
595,591	6,88
595,835	6,85
596,079	6,85
596,323	6,83
596,567	6,82
596,811	6,8
597,055	6,78
597,299	6,77
597,542	6,76
597,786	6,75
598,03	6,74
598,274	6,72
598,518	6,71
598,761	6,7
599,005	6,7
599,249	6,69
599,492	6,69
599,736	6,68
599,98	6,68
600,223	6,66
600,467	6,65
600,711	6,65
600,954	6,65
601,198	6,63
601,441	6,62
601,685	6,61
601,928	6,61
602,172	6,59
602,415	6,58
602,659	6,56
602,902	6,55
603,145	6,53
603,389	6,53
603,632	6,52
603,876	6,5
604,119	6,49
604,362	6,48
604,606	6,46
604,849	6,45
605,092	6,44
605,335	6,42
605,579	6,4
605,822	6,39
606,065	6,37
606,308	6,37
606,551	6,35
606,794	6,33
607,037	6,31
607,281	6,31
607,524	6,29
607,767	6,28
608,01	6,27
608,253	6,25
608,496	6,24
608,739	6,23
608,982	6,21
609,225	6,2
609,468	6,19
609,711	6,18
609,953	6,16
610,196	6,14
610,439	6,13
610,682	6,13
610,925	6,12
611,168	6,11
611,41	6,09
611,653	6,09
611,896	6,07
612,139	6,07
612,381	6,05
612,624	6,05
612,867	6,03
613,109	6,02
613,352	6,01
613,595	6
613,837	5,98
614,08	5,97
614,322	5,96
614,565	5,95
614,807	5,95
615,05	5,95
615,292	5,94
615,535	5,93
615,777	5,91
616,02	5,91
616,262	5,89
616,505	5,89
616,747	5,88
616,989	5,88
617,232	5,87
617,474	5,87
617,716	5,86
617,959	5,86
618,201	5,85
618,443	5,84
618,685	5,83
618,927	5,84
619,17	5,83
619,412	5,82
619,654	5,81
619,896	5,81
620,138	5,8
620,38	5,8
620,622	5,8
620,864	5,81
621,107	5,8
621,349	5,8
621,591	5,8
621,833	5,8
622,075	5,79
622,316	5,79
622,558	5,78
622,8	5,78
623,042	5,77
623,284	5,77
623,526	5,77
623,768	5,77
624,01	5,76
624,251	5,76
624,493	5,76
624,735	5,76
624,977	5,75
625,218	5,75
625,46	5,74
625,702	5,73
625,943	5,71
626,185	5,71
626,427	5,7
626,668	5,69
626,91	5,68
627,152	5,68
627,393	5,67
627,635	5,67
627,876	5,66
628,118	5,65
628,359	5,64
628,601	5,64
628,842	5,62
629,084	5,62
629,325	5,6
629,566	5,6
629,808	5,58
630,049	5,57
630,29	5,55
630,532	5,54
630,773	5,53
631,014	5,52
631,256	5,51
631,497	5,51
631,738	5,5
631,979	5,5
632,22	5,48
632,462	5,47
632,703	5,46
632,944	5,45
633,185	5,44
633,426	5,44
633,667	5,43
633,908	5,43
634,149	5,42
634,39	5,42
634,631	5,41
634,872	5,41
635,113	5,41
635,354	5,41
635,595	5,4
635,836	5,4
636,077	5,39
636,318	5,39
636,559	5,38
636,8	5,37
637,04	5,36
637,281	5,36
637,522	5,35
637,763	5,34
638,003	5,32
638,244	5,33
638,485	5,31
638,726	5,31
638,966	5,31
639,207	5,31
639,448	5,31
639,688	5,31
639,929	5,31
640,169	5,31
640,41	5,29
640,65	5,3
640,891	5,29
641,131	5,29
641,372	5,29
641,612	5,29
641,853	5,29
642,093	5,28
642,334	5,28
642,574	5,28
642,814	5,28
643,055	5,29
643,295	5,29
643,535	5,29
643,776	5,28
644,016	5,28
644,256	5,26
644,496	5,26
644,737	5,25
644,977	5,25
645,217	5,24
645,457	5,24
645,697	5,24
645,938	5,25
646,178	5,25
646,418	5,25
646,658	5,25
646,898	5,26
647,138	5,27
647,378	5,27
647,618	5,27
647,858	5,27
648,098	5,26
648,338	5,27
648,578	5,27
648,818	5,28
649,057	5,28
649,297	5,29
649,537	5,3
649,777	5,31
650,017	5,31
650,257	5,31
650,496	5,31
650,736	5,32
650,976	5,31
651,216	5,31
651,455	5,3
651,695	5,3
651,935	5,3
652,174	5,32
652,414	5,37
652,653	5,52
652,893	5,84
653,133	6,31
653,372	6,82
653,612	7,28
653,851	7,67
654,091	7,94
654,33	8,11
654,57	8,19
654,809	8,21
655,048	8,19
655,288	8,16
655,527	8,15
655,767	8,13
656,006	8,13
656,245	8,12
656,485	8,12
656,724	8,12
656,963	8,12
657,202	8,13
657,442	8,17
657,681	8,18
657,92	8,08
658,159	7,84
658,398	7,5
658,637	7,12
658,877	6,75
659,116	6,41
659,355	6,14
659,594	5,92
659,833	5,77
660,072	5,66
660,311	5,58
660,55	5,49
660,789	5,43
661,028	5,38
661,267	5,34
661,506	5,3
661,744	5,29
661,983	5,27
662,222	5,27
662,461	5,26
662,7	5,27
662,939	5,26
663,177	5,26
663,416	5,26
663,655	5,27
663,894	5,27
664,132	5,28
664,371	5,28
664,61	5,28
664,848	5,29
665,087	5,29
665,326	5,3
665,564	5,3
665,803	5,3
666,041	5,3
666,28	5,31
666,518	5,32
666,757	5,32
666,995	5,32
667,234	5,33
667,472	5,34
667,711	5,34
667,949	5,34
668,187	5,34
668,426	5,35
668,664	5,34
668,902	5,34
669,141	5,35
669,379	5,35
669,617	5,36
669,856	5,37
670,094	5,37
670,332	5,37
670,57	5,38
670,808	5,39
671,046	5,39
671,285	5,4
671,523	5,41
671,761	5,41
671,999	5,41
672,237	5,41
672,475	5,41
672,713	5,42
672,951	5,42
673,189	5,43
673,427	5,43
673,665	5,44
673,903	5,44
674,141	5,44
674,379	5,44
674,617	5,44
674,854	5,44
675,092	5,44
675,33	5,45
675,568	5,45
675,806	5,45
676,043	5,46
676,281	5,46
676,519	5,47
676,756	5,47
676,994	5,47
677,232	5,48
677,469	5,48
677,707	5,48
677,945	5,48
678,182	5,49
678,42	5,5
678,657	5,51
678,895	5,52
679,132	5,52
679,37	5,53
679,607	5,53
679,845	5,54
680,082	5,54
680,32	5,55
680,557	5,55
680,794	5,55
681,032	5,56
681,269	5,56
681,507	5,56
681,744	5,57
681,981	5,57
682,218	5,58
682,456	5,58
682,693	5,58
682,93	5,6
683,167	5,59
683,404	5,59
683,642	5,59
683,879	5,59
684,116	5,6
684,353	5,6
684,59	5,6
684,827	5,61
685,064	5,61
685,301	5,62
685,538	5,62
685,775	5,63
686,012	5,64
686,249	5,64
686,486	5,65
686,723	5,65
686,96	5,66
687,197	5,66
687,433	5,66
687,67	5,67
687,907	5,68
688,144	5,68
688,381	5,67
688,617	5,67
688,854	5,68
689,091	5,68
689,327	5,68
689,564	5,69
689,801	5,69
690,037	5,7
690,274	5,69
690,511	5,7
690,747	5,7
690,984	5,71
691,22	5,71
691,457	5,72
691,693	5,71
691,93	5,71
692,166	5,71
692,403	5,71
692,639	5,71
692,876	5,71
693,112	5,71
693,348	5,72
693,585	5,71
693,821	5,72
694,057	5,73
694,294	5,73
694,53	5,72
694,766	5,73
695,002	5,74
695,239	5,74
695,475	5,75
695,711	5,76
695,947	5,74
696,183	5,74
696,419	5,75
696,656	5,76
696,892	5,77
697,128	5,78
697,364	5,78
697,6	5,79
697,836	5,79
698,072	5,8
698,308	5,81
698,544	5,81
698,78	5,82
699,016	5,81
699,251	5,82
699,487	5,84
699,723	5,84
699,959	5,85
700,195	5,86
700,431	5,86
700,666	5,85
700,902	5,86
701,138	5,88
701,374	5,87
701,609	5,87
701,845	5,87
702,081	5,87
702,316	5,88
702,552	5,88
702,788	5,88
703,023	5,88
703,259	5,88
703,494	5,88
703,73	5,89
703,965	5,9
704,201	5,9
704,436	5,89
704,672	5,9
704,907	5,9
705,143	5,91
705,378	5,9
705,613	5,9
705,849	5,91
706,084	5,91
706,319	5,92
706,555	5,93
706,79	5,94
707,025	5,95
707,26	5,95
707,496	5,97
707,731	5,97
707,966	5,98
708,201	5,99
708,436	6
708,671	6
708,907	6
709,142	6
709,377	6
709,612	6
709,847	6,01
710,082	6,01
710,317	6,02
710,552	6,03
710,787	6,03
711,022	6,03
711,257	6,03
711,492	6,03
711,726	6,04
711,961	6,04
712,196	6,05
712,431	6,04
712,666	6,05
712,901	6,05
713,135	6,05
713,37	6,05
713,605	6,05
713,839	6,05
714,074	6,06
714,309	6,06
714,543	6,07
714,778	6,06
715,013	6,06
715,247	6,07
715,482	6,07
715,716	6,06
715,951	6,06
716,185	6,07
716,42	6,07
716,654	6,06
716,889	6,06
717,123	6,06
717,358	6,06
717,592	6,06
717,827	6,05
718,061	6,06
718,295	6,07
718,53	6,07
718,764	6,08
718,998	6,07
719,232	6,07
719,467	6,07
719,701	6,07
719,935	6,08
720,169	6,07
720,403	6,07
720,638	6,07
720,872	6,08
721,106	6,08
721,34	6,09
721,574	6,09
721,808	6,09
722,042	6,1
722,276	6,1
722,51	6,1
722,744	6,11
722,978	6,12
723,212	6,11
723,446	6,12
723,68	6,11
723,914	6,12
724,147	6,13
724,381	6,14
724,615	6,15
724,849	6,15
725,083	6,17
725,316	6,18
725,55	6,19
725,784	6,2
726,018	6,2
726,251	6,2
726,485	6,21
726,719	6,22
726,952	6,22
727,186	6,24
727,419	6,24
727,653	6,26
727,887	6,26
728,12	6,26
728,354	6,26
728,587	6,27
728,821	6,28
729,054	6,28
729,287	6,29
729,521	6,3
729,754	6,31
729,988	6,31
730,221	6,31
730,454	6,32
730,688	6,32
730,921	6,32
731,154	6,33
731,387	6,33
731,621	6,34
731,854	6,35
732,087	6,35
732,32	6,36
732,553	6,37
732,787	6,38
733,02	6,39
733,253	6,41
733,486	6,41
733,719	6,41
733,952	6,41
734,185	6,41
734,418	6,41
734,651	6,41
734,884	6,42
735,117	6,43
735,35	6,42
735,583	6,42
735,816	6,43
736,049	6,42
736,281	6,43
736,514	6,42
736,747	6,42
736,98	6,41
737,213	6,41
737,445	6,41
737,678	6,41
737,911	6,4
738,144	6,39
738,376	6,4
738,609	6,4
738,842	6,4
739,074	6,4
739,307	6,39
739,539	6,38
739,772	6,38
740,004	6,36
740,237	6,37
740,469	6,36
740,702	6,36
740,934	6,35
741,167	6,35
741,399	6,35
741,632	6,34
741,864	6,34
742,096	6,34
742,329	6,33
742,561	6,34
742,793	6,34
743,026	6,34
743,258	6,33
743,49	6,34
743,723	6,34
743,955	6,34
744,187	6,34
744,419	6,35
744,651	6,35
744,883	6,37
745,115	6,37
745,348	6,38
745,58	6,38
745,812	6,38
746,044	6,38
746,276	6,38
746,508	6,39
746,74	6,39
746,972	6,39
747,204	6,39
747,436	6,38
747,667	6,38
747,899	6,36
748,131	6,36
748,363	6,35
748,595	6,36
748,827	6,37
749,058	6,38
749,29	6,37
749,522	6,37
749,754	6,36
749,985	6,37
750,217	6,36
750,449	6,37
750,68	6,38
750,912	6,39
751,144	6,39
751,375	6,39
751,607	6,4
751,838	6,41
752,07	6,4
752,301	6,42
752,533	6,42
752,764	6,43
752,996	6,44
753,227	6,44
753,459	6,44
753,69	6,44
753,921	6,44
754,153	6,45
754,384	6,45
754,615	6,46
754,847	6,46
755,078	6,47
755,309	6,48
755,54	6,48
755,772	6,48
756,003	6,48
756,234	6,49
756,465	6,49
756,696	6,49
756,927	6,49
757,159	6,48
757,39	6,49
757,621	6,48
757,852	6,49
758,083	6,49
758,314	6,49
758,545	6,5
758,776	6,51
759,007	6,51
759,238	6,51
759,469	6,49
759,699	6,48
759,93	6,48
760,161	6,47
760,392	6,47
760,623	6,47
760,854	6,46
761,084	6,47
761,315	6,47
761,546	6,47
761,776	6,48
762,007	6,48
762,238	6,48
762,468	6,47
762,699	6,46
762,93	6,47
763,16	6,46
763,391	6,46
763,621	6,45
763,852	6,45
764,083	6,45
764,313	6,46
764,543	6,46
764,774	6,46
765,004	6,45
765,235	6,45
765,465	6,44
765,696	6,45
765,926	6,44
766,156	6,44
766,387	6,43
766,617	6,43
766,847	6,45
767,077	6,45
767,308	6,46
767,538	6,46
767,768	6,45
767,998	6,45
768,228	6,45
768,459	6,45
768,689	6,45
768,919	6,44
769,149	6,45
769,379	6,45
769,609	6,45
769,839	6,46
770,069	6,45
770,299	6,46
770,529	6,45
770,759	6,45
770,989	6,43
771,219	6,43
771,449	6,42
771,678	6,41
771,908	6,4
772,138	6,4
772,368	6,4
772,598	6,41
772,827	6,41
773,057	6,41
773,287	6,39
773,517	6,39
773,746	6,39
773,976	6,38
774,206	6,37
774,435	6,36
774,665	6,36
774,894	6,37
775,124	6,36
775,354	6,36
775,583	6,35
775,813	6,36
776,042	6,37
776,272	6,37
776,501	6,37
776,73	6,36
776,96	6,36
777,189	6,36
777,419	6,36
777,648	6,37
777,877	6,36
778,107	6,38
778,336	6,38
778,565	6,38
778,794	6,37
779,024	6,38
779,253	6,39
779,482	6,38
779,711	6,38
779,94	6,37
780,17	6,38
780,399	6,39
780,628	6,39
780,857	6,39
781,086	6,4
781,315	6,4
781,544	6,4
781,773	6,39
782,002	6,39
782,231	6,39
782,46	6,39
782,689	6,39
782,918	6,39
783,147	6,4
783,375	6,4
783,604	6,4
783,833	6,4
784,062	6,38
784,291	6,38
784,519	6,38
784,748	6,38
784,977	6,39
785,206	6,37
785,434	6,37
785,663	6,36
785,892	6,35
786,12	6,35
786,349	6,34
786,577	6,34
786,806	6,35
787,034	6,34
787,263	6,34
787,492	6,34
787,72	6,33
787,948	6,33
788,177	6,33
788,405	6,33
788,634	6,33
788,862	6,34
789,09	6,35
789,319	6,35
789,547	6,35
789,775	6,34
790,004	6,34
790,232	6,34
790,46	6,35
790,688	6,36
790,917	6,36
791,145	6,36
791,373	6,36
791,601	6,35
791,829	6,35
792,057	6,33
792,286	6,34
792,514	6,34
792,742	6,33
792,97	6,33
793,198	6,32
793,426	6,32
793,654	6,32
793,882	6,31
794,109	6,31
794,337	6,29
794,565	6,3
794,793	6,29
795,021	6,28
795,249	6,28
795,477	6,29
795,704	6,29
795,932	6,28
796,16	6,28
796,388	6,29
796,615	6,29
796,843	6,29
797,071	6,3
797,298	6,3
797,526	6,3
797,754	6,29
797,981	6,3
798,209	6,31
798,436	6,31
798,664	6,31
798,891	6,33
799,119	6,34
799,346	6,35
799,574	6,35
799,801	6,36
800,029	6,36
800,256	6,36
800,483	6,36
800,711	6,35
800,938	6,35
801,165	6,34
801,393	6,34
801,62	6,35
801,847	6,35
802,074	6,34
802,302	6,34
802,529	6,33
802,756	6,33
802,983	6,33
803,21	6,31
803,437	6,31
803,665	6,3
803,892	6,3
804,119	6,29
804,346	6,29
804,573	6,29
804,8	6,27
805,027	6,27
805,254	6,27
805,481	6,28
805,708	6,28
805,934	6,29
806,161	6,29
806,388	6,28
806,615	6,26
806,842	6,26
807,069	6,27
807,295	6,27
807,522	6,27
807,749	6,27
807,976	6,27
808,202	6,27
808,429	6,26
808,656	6,27
808,882	6,27
809,109	6,25
809,335	6,25
809,562	6,26
809,789	6,26
810,015	6,26
810,242	6,27
810,468	6,27
810,695	6,27
810,921	6,28
811,147	6,28
811,374	6,29
811,6	6,29
811,827	6,29
812,053	6,28
812,279	6,29
812,506	6,27
812,732	6,3
812,958	6,31
813,185	6,32
813,411	6,33
813,637	6,33
813,863	6,34
814,089	6,36
814,315	6,36
814,542	6,36
814,768	6,36
814,994	6,37
815,22	6,36
815,446	6,35
815,672	6,35
815,898	6,35
816,124	6,36
816,35	6,37
816,576	6,38
816,802	6,4
817,028	6,39
817,254	6,39
817,48	6,38
817,705	6,37
817,931	6,37
818,157	6,35
818,383	6,35
818,609	6,35
818,834	6,33
819,06	6,32
819,286	6,32
819,512	6,33
819,737	6,33
819,963	6,33
820,189	6,34
820,414	6,34
820,64	6,33
820,865	6,33
821,091	6,32
821,316	6,3
821,542	6,29
821,767	6,3
821,993	6,3
822,218	6,31
822,444	6,31
822,669	6,31
822,895	6,32
823,12	6,32
823,345	6,33
823,571	6,32
823,796	6,34
824,021	6,34
824,247	6,34
824,472	6,32
824,697	6,31
824,922	6,31
825,147	6,31
825,373	6,32
825,598	6,32
825,823	6,34
826,048	6,35
826,273	6,37
826,498	6,35
826,723	6,37
826,948	6,36
827,173	6,37
827,398	6,37
827,623	6,37
827,848	6,38
828,073	6,38
828,298	6,4
828,523	6,4
828,748	6,39
828,973	6,39
829,197	6,4
829,422	6,41
829,647	6,41
829,872	6,41
830,097	6,4
830,321	6,39
830,546	6,38
830,771	6,38
830,995	6,37
831,22	6,38
831,445	6,37
831,669	6,36
831,894	6,36
832,118	6,37
832,343	6,36
832,567	6,35
832,792	6,35
833,016	6,34
833,241	6,35
833,465	6,37
833,69	6,38
833,914	6,39
834,139	6,41
834,363	6,4
834,587	6,39
834,812	6,39
835,036	6,41
835,26	6,42
835,485	6,42
835,709	6,41
835,933	6,41
836,157	6,4
836,381	6,41
836,606	6,41
836,83	6,41
837,054	6,42
837,278	6,42
837,502	6,43
837,726	6,44
837,95	6,43
838,174	6,42
838,398	6,42
838,622	6,39
838,846	6,39
839,07	6,39
839,294	6,4
839,518	6,4
839,742	6,4
839,966	6,39
840,189	6,41
840,413	6,42
840,637	6,43
840,861	6,42
841,085	6,43
841,308	6,45
841,532	6,44
841,756	6,45
841,979	6,45
842,203	6,44
842,427	6,45
842,65	6,44
842,874	6,44
843,098	6,45
843,321	6,46
843,545	6,47
843,768	6,47
843,992	6,48
844,215	6,49
844,439	6,48
844,662	6,48
844,886	6,47
845,109	6,48
845,332	6,48
845,556	6,5
845,779	6,49
846,002	6,49
846,226	6,52
846,449	6,52
846,672	6,52
846,895	6,53
847,119	6,53
847,342	6,53
847,565	6,54
847,788	6,55
848,011	6,58
848,234	6,57
848,457	6,57
848,681	6,57
848,904	6,58
849,127	6,59
849,35	6,6
849,573	6,6
849,796	6,61
850,019	6,62
850,241	6,64
850,464	6,64
850,687	6,64
850,91	6,64
851,133	6,64
851,356	6,66
851,579	6,68
851,801	6,68
852,024	6,71
852,247	6,71
852,47	6,71
852,692	6,71
852,915	6,71
853,138	6,74
853,36	6,75
853,583	6,76
853,806	6,77
854,028	6,78
854,251	6,79
854,473	6,79
854,696	6,8
854,918	6,78
855,141	6,79
855,363	6,8
855,586	6,79
855,808	6,81
856,031	6,8
856,253	6,77
856,475	6,78
856,698	6,78
856,92	6,81
857,142	6,78
857,365	6,78
857,587	6,8
857,809	6,78
858,031	6,77
858,253	6,77
858,476	6,77
858,698	6,75
858,92	6,76
859,142	6,78
859,364	6,77
859,586	6,77
859,808	6,77
860,03	6,77
860,252	6,78
860,474	6,79
860,696	6,81
860,918	6,85
861,14	6,83
861,362	6,83
861,584	6,81
861,806	6,82
862,028	6,83
862,25	6,81
862,471	6,82
862,693	6,83
862,915	6,83
863,137	6,85
863,358	6,89
863,58	6,9
863,802	6,91
864,024	6,9
864,245	6,91
864,467	6,92
864,688	6,92
864,91	6,94
865,132	6,94
865,353	6,93
865,575	6,92
865,796	6,95
866,018	6,95
866,239	6,97
866,461	6,99
866,682	7,01
866,903	7,02
867,125	7,02
867,346	7,04
867,567	7,07
867,789	7,06
868,01	7,05
868,231	7,06
868,453	7,06
868,674	7,08
868,895	7,08
869,116	7,1
869,337	7,09
869,559	7,08
869,78	7,08
870,001	7,09
870,222	7,1
870,443	7,11
870,664	7,12
870,885	7,14
871,106	7,14
871,327	7,13
871,548	7,15
871,769	7,16
871,99	7,19
872,211	7,16
872,432	7,16
872,653	7,17
872,874	7,16
873,094	7,17
873,315	7,18
873,536	7,19
873,757	7,2
873,978	7,22
874,198	7,26
874,419	7,23
874,64	7,24
874,86	7,23
875,081	7,24
875,302	7,27
875,522	7,25
875,743	7,24
875,963	7,24
876,184	7,25
876,404	7,25
876,625	7,26
876,845	7,28
877,066	7,27
877,286	7,29
877,507	7,3
877,727	7,29
877,947	7,31
878,168	7,31
878,388	7,3
878,609	7,29
878,829	7,27
879,049	7,32
879,269	7,33
879,49	7,35
879,71	7,34
879,93	7,34
880,15	7,35
880,37	7,38
880,59	7,39
880,811	7,39
881,031	7,41
881,251	7,4
881,471	7,39
881,691	7,43
881,911	7,43
882,131	7,47
882,351	7,48
882,571	7,47
882,791	7,49
883,011	7,51
883,23	7,52
883,45	7,54
883,67	7,52
883,89	7,55
884,11	7,59
884,33	7,59
884,549	7,56
884,769	7,57
884,989	7,57
885,209	7,56
885,428	7,58
885,648	7,6
885,868	7,6
886,087	7,61
886,307	7,62
886,526	7,61
886,746	7,6
886,965	7,6
887,185	7,6
887,404	7,64
887,624	7,66
887,843	7,66
888,063	7,7
888,282	7,71
888,502	7,7
888,721	7,7
888,94	7,72
889,16	7,73
889,379	7,75
889,598	7,78
889,818	7,82
890,037	7,83
890,256	7,85
890,475	7,86
890,694	7,9
890,914	7,9
891,133	7,94
891,352	7,98
891,571	8,01
891,79	8,04
892,009	8,03
892,228	8,05
892,447	8,09
892,666	8,07
892,885	8,1
893,104	8,13
893,323	8,16
893,542	8,17
893,761	8,2
893,98	8,21
894,199	8,24
894,417	8,22
894,636	8,23
894,855	8,24
895,074	8,26
895,293	8,25
895,511	8,3
895,73	8,29
895,949	8,29
896,167	8,3
896,386	8,32
896,605	8,36
896,823	8,34
897,042	8,35
897,26	8,4
897,479	8,4
897,697	8,4
897,916	8,44
898,134	8,45
898,353	8,47
898,571	8,51
898,79	8,5
899,008	8,55
899,227	8,56
899,445	8,56
899,663	8,57
899,882	8,58
900,1	8,59
900,318	8,61
900,536	8,62
900,755	8,6
900,973	8,62
901,191	8,62
901,409	8,64
901,627	8,62
901,846	8,61
902,064	8,59
902,282	8,63
902,5	8,61
902,718	8,63
902,936	8,64
903,154	8,64
903,372	8,68
903,59	8,69
903,808	8,69
904,026	8,76
904,244	8,74
904,462	8,75
904,679	8,74
904,897	8,76
905,115	8,79
905,333	8,83
905,551	8,83
905,768	8,82
905,986	8,84
906,204	8,89
906,422	8,89
906,639	8,94
906,857	8,97
907,074	8,98
907,292	9,03
907,51	9,04
907,727	9,05
907,945	9,07
908,162	9,03
908,38	9,05
908,597	9,05
908,815	9,08
909,032	9,16
909,25	9,15
909,467	9,15
909,684	9,13
909,902	9,14
910,119	9,19
910,337	9,2
910,554	9,24
910,771	9,22
910,988	9,28
911,206	9,29
911,423	9,26
911,64	9,23
911,857	9,23
912,074	9,27
912,291	9,31
912,509	9,3
912,726	9,35
912,943	9,36
913,16	9,36
913,377	9,41
913,594	9,4
913,811	9,51
914,028	9,56
914,245	9,61
914,462	9,63
914,679	9,6
914,896	9,62
915,112	9,61
915,329	9,65
915,546	9,67
915,763	9,72
915,98	9,77
916,196	9,78
916,413	9,81
916,63	9,8
916,847	9,83
917,063	9,83
917,28	9,85
917,497	9,87
917,713	9,87
917,93	9,88
918,146	9,85
918,363	9,8
918,579	9,84
918,796	9,84
919,012	9,86
919,229	9,89
919,445	9,95
919,662	10
919,878	9,99
920,095	9,98
920,311	9,99
920,527	10,01
920,744	10,07
920,96	10,06
921,176	10,09
921,392	10,08
921,609	10,1
921,825	10,15
922,041	10,24
922,257	10,27
922,473	10,33
922,69	10,41
922,906	10,46
923,122	10,45
923,338	10,47
923,554	10,49
923,77	10,52
923,986	10,5
924,202	10,54
924,418	10,55
924,634	10,56
924,85	10,57
925,066	10,63
925,282	10,65
925,497	10,71
925,713	10,73
925,929	10,76
926,145	10,77
926,361	10,77
926,576	10,76
926,792	10,79
927,008	10,79
927,224	10,78
927,439	10,79
927,655	10,81
927,871	10,82
928,086	10,85
928,302	10,84
928,517	10,9
928,733	10,89
928,948	10,93
929,164	10,98
929,379	10,97
929,595	10,96
929,81	10,99
930,026	10,97
930,241	11,02
930,456	11,08
930,672	11,12
930,887	11,12
931,102	11,12
931,318	11,13
931,533	11,15
931,748	11,2
931,964	11,2
932,179	11,19
932,394	11,2
932,609	11,23
932,824	11,29
933,039	11,25
933,255	11,28
933,47	11,31
933,685	11,36
933,9	11,46
934,115	11,48
934,33	11,5
934,545	11,55
934,76	11,57
934,975	11,53
935,19	11,6
935,404	11,68
935,619	11,73
935,834	11,79
936,049	11,81
936,264	11,85
936,479	11,92
936,693	12,05
936,908	12,23
937,123	12,28
937,338	12,35
937,552	12,56
937,767	12,65
937,982	12,82
938,196	12,89
938,411	12,95
938,625	13,01
938,84	13,07
939,055	13,2
939,269	13,31
939,484	13,41
939,698	13,49
939,912	13,61
940,127	13,71
940,341	13,85
940,556	13,93
940,77	14
940,984	14,05
941,199	14,14
941,413	13,98
941,627	14,04
941,842	14,11
942,056	14,02
942,27	14,2
942,484	13,9
942,699	13,95
942,913	13,93
943,127	13,87
943,341	13,96
943,555	13,87
943,769	13,92
943,983	14,07
944,197	14,12
944,411	14,01
944,625	14,01
944,839	13,96
945,053	14,28
945,267	14,35
945,481	14,62
945,695	14,62
945,909	15,02
946,123	14,95
946,336	14,89
946,55	14,97
946,764	14,89
946,978	15,06
947,192	15,09
947,405	15,2
947,619	15,52
947,833	15,52
948,046	15,8
948,26	15,83
948,474	15,88
948,687	15,9
948,901	16,12
949,114	16,07
949,328	16,25
949,541	16,28
949,755	16,27
949,968	16
950,182	15,98
950,395	15,84
950,609	15,91
950,822	16,08
951,035	16,03
951,249	16,07
951,462	16,05
951,675	16,07
951,889	16,02
952,102	15,96
952,315	16,1
952,528	15,92
952,741	15,84
952,955	15,87
953,168	15,92
953,381	15,84
953,594	16,01
953,807	15,88
954,02	15,73
954,233	15,77
954,446	15,9
954,659	15,95
954,872	16,07
955,085	16,14
955,298	16,12
955,511	16,07
955,724	16,11
955,937	16,37
956,15	16,48
956,362	16,42
956,575	16,46
956,788	16,44
957,001	16,53
957,214	16,66
957,426	16,67
957,639	16,62
957,852	16,59
958,064	16,47
958,277	16,58
958,49	16,66
958,702	16,69
958,915	16,77
959,127	16,83
959,34	16,7
959,552	16,7
959,765	16,71
959,977	16,87
960,19	16,74
960,402	16,63
960,615	16,48
960,827	16,65
961,039	16,68
961,252	16,65
961,464	16,59
961,676	16,55
961,889	16,56
962,101	16,62
962,313	16,65
962,525	16,73
962,738	16,66
962,95	16,65
963,162	16,7
963,374	16,67
963,586	16,66
963,798	16,7
964,01	16,76
964,222	16,74
964,434	16,76
964,646	16,97
964,858	16,96
965,07	17,02
965,282	17,11
965,494	17,11
965,706	17,28
965,918	17,43
966,13	17,44
966,342	17,32
966,553	17,36
966,765	17,39
966,977	17,43
967,189	17,59
967,401	17,7
967,612	17,72
967,824	17,82
968,036	17,87
968,247	17,92
968,459	17,92
968,67	18,01
968,882	18,06
969,094	18,03
969,305	18,02
969,517	18,08
969,728	18,07
969,94	18,11
970,151	18,05
970,362	18,11
970,574	18,19
970,785	18,32
970,997	18,39
971,208	18,45
971,419	18,43
971,631	18,38
971,842	18,44
972,053	18,44
972,264	18,33
972,476	18,34
972,687	18,35
972,898	18,54
973,109	18,58
973,32	18,66
973,531	18,76
973,742	18,83
973,954	18,89
974,165	18,88
974,376	18,92
974,587	18,94
974,798	18,87
975,009	18,81
975,22	18,86
975,43	18,91
975,641	18,97
975,852	19,15
976,063	19,29
976,274	19,26
976,485	19,22
976,695	19,33
976,906	19,32
977,117	19,36
977,328	19,16
977,538	19,14
977,749	19,03
977,96	19,12
978,17	19,26
978,381	19,26
978,592	19,29
978,802	19,32
979,013	19,38
979,223	19,39
979,434	19,58
979,644	19,53
979,855	19,52
980,065	19,53
980,276	19,54
980,486	19,54
980,696	19,48
980,907	19,74
981,117	19,88
981,327	19,96
981,538	20,03
981,748	20,25
981,958	20,36
982,169	20,54
982,379	20,48
982,589	20,42
982,799	20,6
983,009	20,58
983,219	20,61
983,43	20,61
983,64	20,71
983,85	20,75
984,06	20,99
984,27	21,01
984,48	21,03
984,69	21,07
984,9	21,03
985,11	21,23
985,32	21,22
985,529	21,19
985,739	21,16
985,949	21,31
986,159	21,3
986,369	21,41
986,579	21,52
986,788	21,57
986,998	21,8
987,208	21,83
987,417	21,88
987,627	21,94
987,837	22,08
988,046	22,18
988,256	22,1
988,466	22,08
988,675	22,29
988,885	22,41
989,094	22,52
989,304	22,56
989,513	22,62
989,723	22,68
989,932	22,65
990,142	22,89
990,351	22,83
990,56	22,9
990,77	22,92
990,979	22,84
991,188	22,98
991,398	22,9
991,607	22,89
991,816	23,03
992,025	23,09
992,235	23,25
992,444	23,37
992,653	23,42
992,862	23,31
993,071	23,31
993,28	23,46
993,489	23,59
993,698	23,71
993,908	23,77
994,117	23,74
994,326	23,88
994,534	23,96
994,743	24,14
994,952	24,07
995,161	24,18
995,37	24,45
995,579	24,51
995,788	24,69
995,997	24,64
996,205	24,58
996,414	24,62
996,623	24,44
996,832	24,37
997,04	24,55
997,249	24,83
997,458	24,93
997,666	24,81
997,875	24,7
998,084	24,69
998,292	24,67
998,501	24,84
998,709	24,92
998,918	24,78
999,126	24,68
999,335	24,75
999,543	24,76
999,752	24,75
999,96	24,75
1000,169	24,78
1000,377	24,85
1000,585	25,11
1000,794	25,12
1001,002	25,36
1001,21	25,51
1001,418	25,54
1001,627	25,55
1001,835	25,57
1002,043	25,65
1002,251	25,71
1002,459	25,98
1002,668	25,94
1002,876	26,07
1003,084	26,02
1003,292	26,22
1003,5	26,42
1003,708	26,72
1003,916	26,73
1004,124	26,78
1004,332	26,86
1004,54	26,97
1004,748	27,2
1004,956	27,13
1005,163	27,19
1005,371	27,21
1005,579	27,22
1005,787	27,35
1005,995	27,53
1006,202	27,56
1006,41	27,49
1006,618	27,36
1006,826	27,06
1007,033	27,28
1007,241	27,3
1007,449	27,57
1007,656	27,45
1007,864	27,63
1008,071	27,62
1008,279	27,59
1008,486	27,86
1008,694	28,02
1008,901	27,83
1009,109	27,88
1009,316	27,94
1009,524	28
1009,731	27,91
1009,938	27,95
1010,146	27,66
1010,353	27,86
1010,56	28,01
1010,768	28,15
1010,975	28,62
1011,182	28,95
1011,389	28,78
1011,597	28,65
1011,804	28,74
1012,011	28,73
1012,218	28,76
1012,425	28,82
1012,632	28,86
1012,839	28,78
1013,046	28,61
1013,253	28,51
1013,46	28,49
1013,667	28,83
1013,874	28,61
1014,081	28,7
1014,288	28,68
1014,495	29,17
1014,702	28,8
1014,909	28,76
1015,116	28,91
1015,323	28,63
1015,529	28,51
1015,736	28,84
1015,943	28,95
1016,15	29,09
1016,356	29,17
1016,563	29,23
1016,77	29,18
1016,976	29,01
1017,183	28,96
1017,389	29,4
1017,596	29,63
1017,803	29,68
1018,009	29,53
1018,216	29,88
1018,422	29,94
1018,629	30,28
1018,835	29,99
1019,041	30,1
1019,248	29,78
1019,454	29,96
1019,661	30,45
1019,867	30,6
1020,073	30,66
1020,279	30,87
1020,486	30,5
1020,692	31,02
1020,898	30,75
1021,104	30,66
1021,311	30,94
1021,517	30,64
1021,723	30,38
1021,929	30,78
1022,135	30,94
1022,341	30,94
1022,547	30,71
1022,753	31,27
1022,959	31
1023,165	31,18
1023,371	31,27
1023,577	31,9
1023,783	31,85
1023,989	31,39
1024,195	31,74
1024,401	32,04
1024,607	32,08
1024,812	32,4
1025,018	32,17
1025,224	32,12
1025,43	32,35
1025,635	32,73
1025,841	32,84
1026,047	32,54
1026,252	32,25
1026,458	32,09
1026,664	31,81
1026,869	32,41
1027,075	31,61
1027,28	31,53
1027,486	31,77
1027,691	31,99
1027,897	31,75
1028,102	31,99
1028,308	32,02
1028,513	31,74
1028,719	31,54
1028,924	31,65
1029,129	31,63
1029,335	31,43
1029,54	31,69
1029,745	31,63
1029,95	32,18
1030,156	32,52
1030,361	32,25
1030,566	33,02
1030,771	33,2
1030,976	33,11
1031,182	32,85
1031,387	33,29
1031,592	33,26
1031,797	33,58
1032,002	33,59
1032,207	33,31
1032,412	33,11
1032,617	33,32
1032,822	33,25
1033,027	33,16
1033,232	32,39
1033,437	32,36
1033,642	32,55
1033,846	32,73
1034,051	32,62
1034,256	32,25
1034,461	32,02
1034,666	32,44
1034,87	31,5
1035,075	31,79
1035,28	31,94
1035,484	32,43
1035,689	32,38
1035,894	32,4
1036,098	32,37
1036,303	32,31
1036,507	32,37
1036,712	32,42
1036,917	32,55
1037,121	33,09
1037,325	32,3
1037,53	32,84
1037,734	32,97
1037,939	33,14
1038,143	33,57
1038,348	33,06
1038,552	32,98
1038,756	32,85
1038,961	33,58
1039,165	34,09
1039,369	33,94
1039,573	34,58
1039,778	33,79
1039,982	33,9
1040,186	34,51
1040,39	33,79
1040,594	33,22
1040,798	33,29
1041,002	34,27
1041,206	34,28
1041,41	34,54
1041,614	34,7
1041,818	35,64
1042,022	35,5
1042,226	35,7
1042,43	35,22
1042,634	36,1
1042,838	35,66
1043,042	36,3
1043,246	34,97
1043,45	35,38
1043,653	35,42
1043,857	35,89
1044,061	36,41
1044,265	36,1
1044,468	36,43
1044,672	36,85
1044,876	38,35
1045,079	38,73
1045,283	37,73
1045,487	37,99
1045,69	37,68
1045,894	37,72
1046,097	37,42
1046,301	37,75
1046,504	37,16
1046,708	36,52
1046,911	37,21
1047,115	37,8
1047,318	37,43
1047,522	38,88
1047,725	38,93
1047,928	39,88
1048,132	39,31
1048,335	39,85
1048,538	39,86
1048,741	40,86
1048,945	40,26
1049,148	39,01
1049,351	39,65
1049,554	39,35
1049,757	39,45
1049,96	39,12
1050,163	41
1050,367	40,61
1050,57	40,11
1050,773	40,2
1050,976	41,2
1051,179	41,33
1051,382	40,96
1051,585	39,73
1051,787	39,58
1051,99	38,53
1052,193	37,19
1052,396	36,78
1052,599	36,37
1052,802	37,54
1053,005	36,82
1053,207	39,09
1053,41	39,7
1053,613	40,18
1053,815	39,66
1054,018	39,69
1054,221	40,79
1054,423	39,81
1054,626	39,77
1054,829	40,73
1055,031	41,53
1055,234	41,54
1055,436	40,34
1055,639	40,66
1055,841	43,4
1056,044	43,48
1056,246	44,78
